% Longley-Rice Propagation Model Results
% Generated: 2025-08-13 18:47:15
% Frequency: 970.0 MHz
% TX Height: 52.0 m, RX Height: 2.4 m
% Polarization: vertical
% Calculation Points: 800
%
% Columns: Distance(m), Total_Loss(dB), Reflection_Loss(dB), Diffraction_Loss(dB), FreeSpace_Loss(dB), E_Field(V/m)
1.00	32.673	0.487	0.000	32.185	1.645767e-01
2.00	39.167	0.961	0.000	38.206	7.792146e-02
3.00	91.728	1.420	57.821	41.728	1.834877e-04
4.00	94.227	1.864	60.615	44.227	1.376158e-04
5.00	96.165	2.288	61.331	46.165	1.100926e-04
6.00	97.748	2.686	61.424	47.748	9.174386e-05
7.00	99.087	3.049	61.289	49.087	7.863760e-05
8.00	100.247	3.364	61.064	50.247	6.880790e-05
9.00	101.270	3.614	60.806	51.270	6.116257e-05
10.00	102.185	3.776	60.540	52.185	5.504632e-05
11.00	103.013	3.472	60.666	53.013	5.004211e-05
12.00	103.769	3.089	61.187	53.769	4.587193e-05
13.00	104.464	2.608	61.619	54.464	4.234332e-05
14.00	105.108	2.006	61.957	55.108	3.931880e-05
15.00	105.707	1.253	62.222	55.707	3.669754e-05
16.00	106.268	0.317	62.431	56.268	3.440395e-05
17.00	106.794	-0.841	62.595	56.794	3.238019e-05
18.00	107.291	-2.255	62.724	57.291	3.058129e-05
19.00	107.761	-3.900	62.823	57.761	2.897175e-05
20.00	108.206	-5.527	62.900	58.206	2.752316e-05
21.00	108.630	-6.385	62.939	58.630	2.621253e-05
22.00	109.034	-5.701	62.963	59.034	2.502105e-05
23.00	109.420	-3.954	62.977	59.420	2.393318e-05
24.00	109.790	-2.049	62.980	59.790	2.293597e-05
25.00	110.144	-0.384	62.976	60.144	2.201853e-05
26.00	110.485	0.954	62.965	60.485	2.117166e-05
27.00	110.813	1.969	62.949	60.813	2.038752e-05
28.00	111.129	2.672	62.928	61.129	1.965940e-05
29.00	111.433	3.073	62.904	61.433	1.898149e-05
30.00	111.728	3.167	62.876	61.728	1.834877e-05
31.00	112.013	2.936	62.826	62.013	1.775688e-05
32.00	112.288	2.346	62.775	62.288	1.720197e-05
33.00	112.556	1.351	62.723	62.556	1.668070e-05
34.00	112.815	-0.098	62.671	62.815	1.619009e-05
35.00	113.067	-1.960	62.619	63.067	1.572752e-05
36.00	113.311	-3.751	62.566	63.311	1.529064e-05
37.00	113.549	-4.107	62.513	63.549	1.487738e-05
38.00	113.781	-2.587	62.461	63.781	1.448587e-05
39.00	114.007	-0.599	62.408	64.007	1.411444e-05
40.00	114.227	1.006	62.356	64.227	1.376158e-05
41.00	114.441	2.050	62.289	64.441	1.342593e-05
42.00	114.650	2.529	62.223	64.650	1.310627e-05
43.00	114.855	2.443	62.158	64.855	1.280147e-05
44.00	115.054	1.770	62.095	65.054	1.251053e-05
45.00	115.250	0.483	62.032	65.250	1.223251e-05
46.00	115.441	-1.328	61.970	65.441	1.196659e-05
47.00	115.627	-2.963	61.910	65.627	1.171198e-05
48.00	115.810	-2.863	61.850	65.810	1.146798e-05
49.00	115.989	-1.144	61.791	65.989	1.123394e-05
50.00	116.165	0.612	61.734	66.165	1.100926e-05
51.00	116.337	1.743	61.673	66.337	1.079340e-05
52.00	116.506	2.136	61.613	66.506	1.058583e-05
53.00	116.671	1.775	61.554	66.671	1.038610e-05
54.00	116.833	0.661	61.497	66.833	1.019376e-05
55.00	116.993	-1.041	61.440	66.993	1.000842e-05
56.00	117.149	-2.437	61.384	67.149	9.829699e-06
57.00	117.303	-1.992	61.329	67.303	9.657249e-06
58.00	117.454	-0.294	61.275	67.454	9.490744e-06
59.00	117.602	1.136	61.222	67.602	9.329884e-06
60.00	117.748	1.774	61.170	67.748	9.174386e-06
61.00	117.892	1.537	61.114	67.892	9.023986e-06
62.00	118.033	0.456	61.059	68.033	8.878438e-06
63.00	118.172	-1.144	61.006	68.172	8.737511e-06
64.00	118.309	-2.039	60.953	68.309	8.600987e-06
65.00	118.444	-1.103	60.901	68.444	8.468664e-06
66.00	118.576	0.443	60.850	68.576	8.340351e-06
67.00	118.707	1.386	60.799	68.707	8.215868e-06
68.00	118.836	1.403	60.750	68.836	8.095047e-06
69.00	118.962	0.506	60.701	68.962	7.977727e-06
70.00	119.087	-0.930	60.653	69.087	7.863760e-06
71.00	119.211	-1.646	60.606	69.211	7.753002e-06
72.00	119.332	-0.708	60.560	69.332	7.645322e-06
73.00	119.452	0.628	60.515	69.452	7.540591e-06
74.00	119.570	1.258	60.470	69.570	7.438691e-06
75.00	119.687	0.920	60.426	69.687	7.339509e-06
76.00	119.802	-0.213	60.383	69.802	7.242936e-06
77.00	119.915	-1.266	60.340	69.915	7.148872e-06
78.00	120.027	-0.929	60.298	70.027	7.057220e-06
79.00	120.138	0.273	60.257	70.138	6.967888e-06
80.00	120.247	1.011	60.216	70.247	6.880790e-06
81.00	120.355	0.812	60.180	70.355	6.795842e-06
82.00	120.462	-0.170	60.144	70.462	6.712965e-06
83.00	120.567	-1.036	60.109	70.567	6.632086e-06
84.00	120.671	-0.649	60.074	70.671	6.553133e-06
85.00	120.774	0.377	60.040	70.774	6.476037e-06
86.00	120.875	0.858	60.006	70.875	6.400735e-06
87.00	120.976	0.448	59.973	70.976	6.327163e-06
88.00	121.075	-0.472	59.940	71.075	6.255263e-06
89.00	121.173	-0.814	59.907	71.173	6.184979e-06
90.00	121.270	-0.116	59.875	71.270	6.116257e-06
91.00	121.366	0.595	59.858	71.366	6.049046e-06
92.00	121.461	0.551	59.841	71.461	5.983295e-06
93.00	121.555	-0.151	59.824	71.555	5.918959e-06
94.00	121.648	-0.642	59.807	71.648	5.855991e-06
95.00	121.740	-0.222	59.790	71.740	5.794349e-06
96.00	121.831	0.407	59.774	71.831	5.733991e-06
97.00	121.921	0.443	59.757	71.921	5.674878e-06
98.00	122.010	-0.093	59.740	72.010	5.616971e-06
99.00	122.098	-0.465	59.724	72.098	5.560234e-06
100.00	122.185	-0.137	59.707	72.185	5.504632e-06
101.00	122.272	0.315	59.694	72.272	5.450130e-06
102.00	122.357	0.273	59.680	72.357	5.396698e-06
103.00	122.442	-0.140	59.667	72.442	5.344303e-06
104.00	122.526	-0.293	59.654	72.526	5.292915e-06
105.00	122.609	0.004	59.640	72.609	5.242506e-06
106.00	122.692	0.226	59.627	72.692	5.193049e-06
107.00	122.773	0.084	59.613	72.773	5.144516e-06
108.00	122.854	-0.143	59.600	72.854	5.096881e-06
109.00	122.934	-0.103	59.587	72.934	5.050121e-06
110.00	123.013	0.064	59.573	73.013	5.004211e-06
111.00	123.092	0.078	59.560	73.092	4.959128e-06
112.00	123.170	-0.011	59.546	73.170	4.914850e-06
113.00	123.247	-0.029	59.532	73.247	4.871355e-06
114.00	123.324	-0.010	59.518	73.324	4.828624e-06
115.00	123.399	-0.029	59.505	73.399	4.786636e-06
116.00	123.475	0.004	59.491	73.475	4.745372e-06
117.00	123.549	0.084	59.478	73.549	4.704813e-06
118.00	123.623	0.022	59.464	73.623	4.664942e-06
119.00	123.696	-0.135	59.451	73.696	4.625741e-06
120.00	123.769	-0.057	59.438	73.769	4.587193e-06
121.00	123.841	0.174	59.422	73.841	4.549282e-06
122.00	123.913	0.103	59.405	73.913	4.511993e-06
123.00	123.984	-0.213	59.390	73.984	4.475310e-06
124.00	124.054	-0.143	59.374	74.054	4.439219e-06
125.00	124.124	0.245	59.358	74.124	4.403705e-06
126.00	124.193	0.184	59.342	74.193	4.368755e-06
127.00	124.262	-0.287	59.327	74.262	4.334356e-06
128.00	124.330	-0.208	59.311	74.330	4.300494e-06
129.00	124.397	0.326	59.296	74.397	4.267156e-06
130.00	124.464	0.230	59.281	74.464	4.234332e-06
131.00	124.531	-0.387	59.262	74.531	4.202009e-06
132.00	124.597	-0.221	59.244	74.597	4.170176e-06
133.00	124.662	0.433	59.226	74.662	4.138821e-06
134.00	124.728	0.218	59.209	74.728	4.107934e-06
135.00	124.792	-0.520	59.191	74.792	4.077505e-06
136.00	124.856	-0.143	59.173	74.856	4.047523e-06
137.00	124.920	0.556	59.156	74.920	4.017979e-06
138.00	124.983	0.096	59.139	74.983	3.988864e-06
139.00	125.046	-0.656	59.122	75.046	3.960167e-06
140.00	125.108	0.071	59.105	75.108	3.931880e-06
141.00	125.170	0.643	59.084	75.170	3.903994e-06
142.00	125.231	-0.165	59.064	75.231	3.876501e-06
143.00	125.292	-0.688	59.044	75.292	3.849393e-06
144.00	125.353	0.377	59.024	75.353	3.822661e-06
145.00	125.413	0.602	59.004	75.413	3.796298e-06
146.00	125.472	-0.547	58.984	75.472	3.770296e-06
147.00	125.532	-0.476	58.965	75.532	3.744647e-06
148.00	125.591	0.704	58.945	75.591	3.719346e-06
149.00	125.649	0.314	58.926	75.649	3.694384e-06
150.00	125.707	-0.898	58.907	75.707	3.669754e-06
151.00	125.765	0.035	58.886	75.765	3.645451e-06
152.00	125.822	0.855	58.865	75.822	3.621468e-06
153.00	125.879	-0.265	58.844	75.879	3.597798e-06
154.00	125.936	-0.849	58.823	75.936	3.574436e-06
155.00	125.992	0.638	58.803	75.992	3.551375e-06
156.00	126.048	0.617	58.783	76.048	3.528610e-06
157.00	126.103	-0.941	58.763	76.103	3.506135e-06
158.00	126.159	-0.194	58.743	76.159	3.483944e-06
159.00	126.213	0.987	58.723	76.213	3.462033e-06
160.00	126.268	-0.143	58.703	76.268	3.440395e-06
161.00	126.322	-1.035	58.683	76.322	3.419026e-06
162.00	126.376	0.685	58.664	76.376	3.397921e-06
163.00	126.429	0.711	58.644	76.429	3.377075e-06
164.00	126.482	-1.087	58.625	76.482	3.356483e-06
165.00	126.535	-0.128	58.606	76.535	3.336140e-06
166.00	126.588	1.100	58.587	76.588	3.316043e-06
167.00	126.640	-0.335	58.568	76.640	3.296187e-06
168.00	126.692	-1.015	58.549	76.692	3.276566e-06
169.00	126.743	0.934	58.531	76.743	3.257179e-06
170.00	126.794	0.540	58.512	76.794	3.238019e-06
171.00	126.845	-1.361	58.500	76.845	3.219083e-06
172.00	126.896	0.381	58.487	76.896	3.200367e-06
173.00	126.946	1.054	58.475	76.946	3.181868e-06
174.00	126.996	-1.051	58.463	76.996	3.163581e-06
175.00	127.046	-0.341	58.450	77.046	3.145504e-06
176.00	127.096	1.256	58.438	77.096	3.127632e-06
177.00	127.145	-0.404	58.426	77.145	3.109961e-06
178.00	127.194	-1.041	58.414	77.194	3.092490e-06
179.00	127.242	1.180	58.402	77.242	3.075213e-06
180.00	127.291	0.268	58.391	77.291	3.058129e-06
181.00	127.339	-1.497	58.380	77.339	3.041233e-06
182.00	127.387	0.902	58.369	77.387	3.024523e-06
183.00	127.434	0.787	58.359	77.434	3.007995e-06
184.00	127.482	-1.609	58.348	77.482	2.991648e-06
185.00	127.529	0.500	58.338	77.529	2.975477e-06
186.00	127.576	1.148	58.327	77.576	2.959479e-06
187.00	127.622	-1.436	58.317	77.622	2.943653e-06
188.00	127.669	0.037	58.307	77.669	2.927996e-06
189.00	127.715	1.367	58.297	77.715	2.912504e-06
190.00	127.761	-1.099	58.287	77.761	2.897175e-06
191.00	127.806	-0.423	58.277	77.806	2.882006e-06
192.00	127.851	1.473	58.268	77.851	2.866996e-06
193.00	127.897	-0.736	58.258	77.897	2.852141e-06
194.00	127.941	-0.825	58.249	77.941	2.837439e-06
195.00	127.986	1.506	58.240	77.986	2.822888e-06
196.00	128.031	-0.398	58.231	78.031	2.808486e-06
197.00	128.075	-1.160	58.222	78.075	2.794229e-06
198.00	128.119	1.497	58.213	78.119	2.780117e-06
199.00	128.162	-0.114	58.204	78.162	2.766147e-06
200.00	128.206	-1.422	58.195	78.206	2.752316e-06
201.00	128.249	1.472	58.186	78.249	2.738623e-06
202.00	128.292	0.092	58.178	78.292	2.725065e-06
203.00	128.335	-1.598	58.170	78.335	2.711641e-06
204.00	128.378	1.455	58.162	78.378	2.698349e-06
205.00	128.421	0.226	58.153	78.421	2.685186e-06
206.00	128.463	-1.719	58.145	78.463	2.672151e-06
207.00	128.505	1.453	58.137	78.505	2.659242e-06
208.00	128.547	0.301	58.129	78.547	2.646458e-06
209.00	128.588	-1.794	58.121	78.588	2.633795e-06
210.00	128.630	1.473	58.113	78.630	2.621253e-06
211.00	128.671	0.294	58.107	78.671	2.608830e-06
212.00	128.712	-1.791	58.100	78.712	2.596524e-06
213.00	128.753	1.546	58.094	78.753	2.584334e-06
214.00	128.794	0.176	58.088	78.794	2.572258e-06
215.00	128.834	-1.710	58.081	78.834	2.560294e-06
216.00	128.875	1.635	58.075	78.875	2.548441e-06
217.00	128.915	-0.015	58.069	78.915	2.536697e-06
218.00	128.955	-1.552	58.062	78.955	2.525060e-06
219.00	128.994	1.727	58.056	78.994	2.513530e-06
220.00	129.034	-0.285	58.050	79.034	2.502105e-06
221.00	129.073	-1.274	58.045	79.073	2.490784e-06
222.00	129.112	1.813	58.041	79.112	2.479564e-06
223.00	129.152	-0.734	58.036	79.152	2.468445e-06
224.00	129.190	-0.827	58.031	79.190	2.457425e-06
225.00	129.229	1.849	58.027	79.229	2.446503e-06
226.00	129.268	-1.264	58.022	79.268	2.435678e-06
227.00	129.306	-0.292	58.017	79.306	2.424948e-06
228.00	129.344	1.800	58.013	79.344	2.414312e-06
229.00	129.382	-1.823	58.008	79.382	2.403769e-06
230.00	129.420	0.288	58.003	79.420	2.393318e-06
231.00	129.458	1.613	58.001	79.458	2.382957e-06
232.00	129.495	-2.352	57.999	79.495	2.372686e-06
233.00	129.533	0.981	57.996	79.533	2.362503e-06
234.00	129.570	1.185	57.994	79.570	2.352407e-06
235.00	129.607	-2.490	57.992	79.607	2.342396e-06
236.00	129.644	1.544	57.989	79.644	2.332471e-06
237.00	129.680	0.499	57.987	79.680	2.322629e-06
238.00	129.717	-2.008	57.984	79.717	2.312870e-06
239.00	129.753	1.907	57.982	79.753	2.303193e-06
240.00	129.790	-0.449	57.980	79.790	2.293597e-06
241.00	129.826	-0.957	57.980	79.826	2.284080e-06
242.00	129.862	1.997	57.981	79.862	2.274641e-06
243.00	129.898	-1.816	57.981	79.898	2.265281e-06
244.00	129.933	0.389	57.982	79.933	2.255997e-06
245.00	129.969	1.624	57.982	79.969	2.246788e-06
246.00	130.004	-2.687	57.983	80.004	2.237655e-06
247.00	130.039	1.451	57.983	80.039	2.228596e-06
248.00	130.074	0.702	57.984	80.074	2.219610e-06
249.00	130.109	-2.155	57.984	80.109	2.210695e-06
250.00	130.144	2.029	57.984	80.144	2.201853e-06
251.00	130.179	-0.989	57.991	80.179	2.193080e-06
252.00	130.213	-0.162	57.998	80.213	2.184378e-06
253.00	130.248	1.828	58.005	80.248	2.175744e-06
254.00	130.282	-2.800	58.012	80.282	2.167178e-06
255.00	130.316	1.621	58.019	80.316	2.158679e-06
256.00	130.350	0.307	58.025	80.350	2.150247e-06
257.00	130.384	-1.486	58.032	80.384	2.141880e-06
258.00	130.418	2.149	58.038	80.418	2.133578e-06
259.00	130.451	-2.171	58.045	80.451	2.125340e-06
260.00	130.485	0.915	58.051	80.485	2.117166e-06
261.00	130.518	1.176	58.060	80.518	2.109054e-06
262.00	130.551	-2.424	58.068	80.551	2.101004e-06
263.00	130.585	2.176	58.076	80.585	2.093016e-06
264.00	130.618	-1.485	58.084	80.618	2.085088e-06
265.00	130.650	0.420	58.092	80.650	2.077220e-06
266.00	130.683	1.570	58.100	80.683	2.069410e-06
267.00	130.716	-2.848	58.108	80.716	2.061660e-06
268.00	130.748	2.125	58.116	80.748	2.053967e-06
269.00	130.780	-0.983	58.123	80.780	2.046331e-06
270.00	130.813	0.009	58.131	80.813	2.038752e-06
271.00	130.845	1.801	58.139	80.845	2.031229e-06
272.00	130.877	-3.047	58.147	80.877	2.023762e-06
273.00	130.909	2.093	58.155	80.909	2.016349e-06
274.00	130.940	-0.773	58.163	80.940	2.008990e-06
275.00	130.972	-0.125	58.171	80.972	2.001684e-06
276.00	131.004	1.884	58.179	81.004	1.994432e-06
277.00	131.035	-3.138	58.187	81.035	1.987232e-06
278.00	131.066	2.116	58.195	81.066	1.980083e-06
279.00	131.098	-0.760	58.202	81.098	1.972986e-06
280.00	131.129	-0.108	58.210	81.129	1.965940e-06
281.00	131.160	1.901	58.217	81.160	1.958944e-06
282.00	131.190	-3.192	58.225	81.190	1.951997e-06
283.00	131.221	2.179	58.232	81.221	1.945100e-06
284.00	131.252	-0.897	58.239	81.252	1.938251e-06
285.00	131.282	0.043	58.246	81.282	1.931450e-06
286.00	131.313	1.855	58.253	81.313	1.924696e-06
287.00	131.343	-3.191	58.260	81.343	1.917990e-06
288.00	131.373	2.271	58.267	81.373	1.911330e-06
289.00	131.403	-1.180	58.274	81.403	1.904717e-06
290.00	131.433	0.311	58.281	81.433	1.898149e-06
291.00	131.463	1.755	58.287	81.463	1.891626e-06
292.00	131.493	-3.127	58.293	81.493	1.885148e-06
293.00	131.523	2.354	58.299	81.523	1.878714e-06
294.00	131.552	-1.442	58.305	81.552	1.872324e-06
295.00	131.582	0.512	58.311	81.582	1.865977e-06
296.00	131.611	1.660	58.317	81.611	1.859673e-06
297.00	131.641	-3.021	58.323	81.641	1.853411e-06
298.00	131.670	2.429	58.328	81.670	1.847192e-06
299.00	131.699	-1.771	58.334	81.699	1.841014e-06
300.00	131.728	0.780	58.340	81.728	1.834877e-06
301.00	131.757	1.458	58.346	81.757	1.828781e-06
302.00	131.786	-2.678	58.353	81.786	1.822726e-06
303.00	131.814	2.503	58.360	81.814	1.816710e-06
304.00	131.843	-2.473	58.366	81.843	1.810734e-06
305.00	131.871	1.334	58.373	81.871	1.804797e-06
306.00	131.900	0.964	58.379	81.900	1.798899e-06
307.00	131.928	-1.938	58.385	81.928	1.793040e-06
308.00	131.956	2.498	58.392	81.956	1.787218e-06
309.00	131.985	-3.206	58.398	81.985	1.781434e-06
310.00	132.013	1.831	58.404	82.013	1.775688e-06
311.00	132.041	0.140	58.413	82.041	1.769978e-06
312.00	132.069	-0.680	58.421	82.069	1.764305e-06
313.00	132.096	2.204	58.430	82.096	1.758668e-06
314.00	132.124	-3.602	58.439	82.124	1.753067e-06
315.00	132.152	2.471	58.447	82.152	1.747502e-06
316.00	132.179	-1.692	58.455	82.179	1.741972e-06
317.00	132.207	0.955	58.464	82.207	1.736477e-06
318.00	132.234	1.301	58.472	82.234	1.731016e-06
319.00	132.261	-2.218	58.480	82.261	1.725590e-06
320.00	132.288	2.574	58.488	82.288	1.720197e-06
321.00	132.316	-3.622	58.500	82.316	1.714839e-06
322.00	132.343	2.299	58.512	82.343	1.709513e-06
323.00	132.369	-1.145	58.523	82.369	1.704220e-06
324.00	132.396	0.808	58.535	82.396	1.698960e-06
325.00	132.423	1.275	58.547	82.423	1.693733e-06
326.00	132.450	-1.834	58.558	82.450	1.688537e-06
327.00	132.476	2.498	58.569	82.476	1.683374e-06
328.00	132.503	-3.858	58.581	82.503	1.678241e-06
329.00	132.529	2.537	58.592	82.529	1.673140e-06
330.00	132.556	-1.995	58.603	82.556	1.668070e-06
331.00	132.582	1.766	58.621	82.582	1.663031e-06
332.00	132.608	-0.429	58.640	82.608	1.658022e-06
333.00	132.634	0.799	58.658	82.634	1.653043e-06
334.00	132.660	0.871	58.676	82.660	1.648093e-06
335.00	132.686	-0.506	58.694	82.686	1.643174e-06
336.00	132.712	1.820	58.712	82.712	1.638283e-06
337.00	132.738	-2.046	58.730	82.738	1.633422e-06
338.00	132.764	2.425	58.748	82.764	1.628589e-06
339.00	132.789	-3.464	58.765	82.789	1.623785e-06
340.00	132.815	2.711	58.783	82.815	1.619009e-06
341.00	132.841	-4.028	58.802	82.841	1.614261e-06
342.00	132.866	2.736	58.822	82.866	1.609541e-06
343.00	132.891	-3.782	58.841	82.891	1.604849e-06
344.00	132.917	2.619	58.861	82.917	1.600184e-06
345.00	132.942	-3.021	58.880	82.942	1.595545e-06
346.00	132.967	2.369	58.899	82.967	1.590934e-06
347.00	132.992	-2.029	58.917	82.992	1.586349e-06
348.00	133.017	1.987	58.936	83.017	1.581791e-06
349.00	133.042	-1.018	58.955	83.042	1.577258e-06
350.00	133.067	1.479	58.973	83.067	1.572752e-06
351.00	133.092	-0.096	58.992	83.092	1.568271e-06
352.00	133.116	0.845	59.010	83.116	1.563816e-06
353.00	133.141	0.700	59.028	83.141	1.559386e-06
354.00	133.165	0.090	59.046	83.165	1.554981e-06
355.00	133.190	1.362	59.064	83.190	1.550600e-06
356.00	133.214	-0.775	59.081	83.214	1.546245e-06
357.00	133.239	1.894	59.099	83.239	1.541914e-06
358.00	133.263	-1.723	59.117	83.263	1.537607e-06
359.00	133.287	2.304	59.134	83.287	1.533324e-06
360.00	133.311	-2.694	59.151	83.311	1.529064e-06
361.00	133.336	2.653	59.166	83.336	1.524829e-06
362.00	133.360	-3.902	59.182	83.360	1.520616e-06
363.00	133.384	2.854	59.197	83.384	1.516427e-06
364.00	133.407	-4.309	59.211	83.407	1.512261e-06
365.00	133.431	2.830	59.226	83.431	1.508118e-06
366.00	133.455	-3.630	59.241	83.455	1.503998e-06
367.00	133.479	2.580	59.256	83.479	1.499900e-06
368.00	133.502	-2.307	59.270	83.502	1.495824e-06
369.00	133.526	2.095	59.285	83.526	1.491770e-06
370.00	133.549	-0.886	59.299	83.549	1.487738e-06
371.00	133.573	1.065	59.310	83.573	1.483728e-06
372.00	133.596	1.051	59.320	83.596	1.479740e-06
373.00	133.620	-0.869	59.331	83.620	1.475773e-06
374.00	133.643	2.301	59.341	83.643	1.471827e-06
375.00	133.666	-3.270	59.351	83.666	1.467902e-06
376.00	133.689	2.884	59.362	83.689	1.463998e-06
377.00	133.712	-4.456	59.372	83.712	1.460115e-06
378.00	133.735	2.826	59.382	83.735	1.456252e-06
379.00	133.758	-2.780	59.392	83.758	1.452409e-06
380.00	133.781	2.104	59.402	83.781	1.448587e-06
381.00	133.804	0.001	59.409	83.804	1.444785e-06
382.00	133.827	0.027	59.416	83.827	1.441003e-06
383.00	133.849	2.109	59.423	83.849	1.437241e-06
384.00	133.872	-3.201	59.430	83.872	1.433498e-06
385.00	133.895	2.953	59.437	83.895	1.429774e-06
386.00	133.917	-4.280	59.444	83.917	1.426070e-06
387.00	133.940	2.599	59.451	83.940	1.422385e-06
388.00	133.962	-1.134	59.458	83.962	1.418720e-06
389.00	133.984	0.958	59.465	83.984	1.415072e-06
390.00	134.007	1.551	59.471	84.007	1.411444e-06
391.00	134.029	-2.372	59.476	84.029	1.407834e-06
392.00	134.051	2.930	59.481	84.051	1.404243e-06
393.00	134.073	-4.465	59.486	84.073	1.400670e-06
394.00	134.095	2.604	59.491	84.095	1.397115e-06
395.00	134.117	-0.754	59.496	84.117	1.393578e-06
396.00	134.139	0.449	59.501	84.139	1.390059e-06
397.00	134.161	2.103	59.505	84.161	1.386557e-06
398.00	134.183	-3.516	59.510	84.183	1.383073e-06
399.00	134.205	3.037	59.515	84.205	1.379607e-06
400.00	134.227	-3.633	59.519	84.227	1.376158e-06
401.00	134.248	2.142	59.524	84.248	1.372726e-06
402.00	134.270	0.476	59.528	84.270	1.369311e-06
403.00	134.292	-0.863	59.532	84.292	1.365914e-06
404.00	134.313	2.708	59.537	84.313	1.362533e-06
405.00	134.335	-4.713	59.541	84.335	1.359168e-06
406.00	134.356	2.908	59.545	84.356	1.355821e-06
407.00	134.377	-1.693	59.550	84.377	1.352489e-06
408.00	134.399	1.053	59.554	84.399	1.349174e-06
409.00	134.420	1.829	59.558	84.420	1.345876e-06
410.00	134.441	-3.081	59.562	84.441	1.342593e-06
411.00	134.462	3.043	59.570	84.462	1.339326e-06
412.00	134.483	-4.632	59.577	84.483	1.336076e-06
413.00	134.504	2.754	59.584	84.504	1.332841e-06
414.00	134.525	-1.314	59.591	84.525	1.329621e-06
415.00	134.546	1.115	59.598	84.546	1.326417e-06
416.00	134.567	1.567	59.605	84.567	1.323229e-06
417.00	134.588	-2.084	59.612	84.588	1.320056e-06
418.00	134.609	2.947	59.619	84.609	1.316898e-06
419.00	134.630	-4.910	59.626	84.630	1.313755e-06
420.00	134.650	2.950	59.633	84.650	1.310627e-06
421.00	134.671	-2.354	59.642	84.671	1.307513e-06
422.00	134.692	1.856	59.650	84.692	1.304415e-06
423.00	134.712	0.619	59.659	84.712	1.301331e-06
424.00	134.733	-0.420	59.667	84.733	1.298262e-06
425.00	134.753	2.437	59.675	84.753	1.295207e-06
426.00	134.774	-3.749	59.684	84.774	1.292167e-06
427.00	134.794	3.137	59.692	84.794	1.289141e-06
428.00	134.814	-4.601	59.700	84.814	1.286129e-06
429.00	134.835	2.768	59.708	84.835	1.283131e-06
430.00	134.855	-1.297	59.716	84.855	1.280147e-06
431.00	134.875	1.421	59.726	84.875	1.277177e-06
432.00	134.895	1.069	59.736	84.895	1.274220e-06
433.00	134.915	-0.778	59.745	84.915	1.271278e-06
434.00	134.935	2.533	59.755	84.935	1.268348e-06
435.00	134.955	-3.765	59.765	84.955	1.265433e-06
436.00	134.975	3.156	59.774	84.975	1.262530e-06
437.00	134.995	-4.934	59.783	84.995	1.259641e-06
438.00	135.015	2.965	59.793	85.015	1.256765e-06
439.00	135.035	-2.242	59.802	85.035	1.253902e-06
440.00	135.054	1.896	59.811	85.054	1.251053e-06
441.00	135.074	0.387	59.822	85.074	1.248216e-06
442.00	135.094	0.211	59.832	85.094	1.245392e-06
443.00	135.114	2.027	59.843	85.114	1.242581e-06
444.00	135.133	-2.289	59.853	85.133	1.239782e-06
445.00	135.153	2.958	59.863	85.153	1.236996e-06
446.00	135.172	-4.850	59.874	85.172	1.234222e-06
447.00	135.192	3.219	59.884	85.192	1.231461e-06
448.00	135.211	-4.388	59.894	85.211	1.228712e-06
449.00	135.230	2.800	59.904	85.230	1.225976e-06
450.00	135.250	-1.523	59.914	85.250	1.223251e-06
451.00	135.269	1.768	59.925	85.269	1.220539e-06
452.00	135.288	0.526	59.936	85.288	1.217839e-06
453.00	135.307	0.216	59.948	85.307	1.215150e-06
454.00	135.327	1.994	59.959	85.327	1.212474e-06
455.00	135.346	-2.014	59.970	85.346	1.209809e-06
456.00	135.365	2.895	59.981	85.365	1.207156e-06
457.00	135.384	-4.524	59.992	85.384	1.204515e-06
458.00	135.403	3.257	60.002	85.403	1.201885e-06
459.00	135.422	-5.073	60.013	85.422	1.199266e-06
460.00	135.441	3.072	60.024	85.441	1.196659e-06
461.00	135.459	-2.654	60.034	85.459	1.194063e-06
462.00	135.478	2.210	60.044	85.478	1.191479e-06
463.00	135.497	0.059	60.055	85.497	1.188905e-06
464.00	135.516	0.532	60.065	85.516	1.186343e-06
465.00	135.534	1.947	60.075	85.534	1.183792e-06
466.00	135.553	-2.110	60.085	85.553	1.181251e-06
467.00	135.572	3.005	60.095	85.572	1.178722e-06
468.00	135.590	-5.010	60.105	85.590	1.176203e-06
469.00	135.609	3.295	60.115	85.609	1.173695e-06
470.00	135.627	-4.402	60.124	85.627	1.171198e-06
471.00	135.646	2.698	60.133	85.646	1.168712e-06
472.00	135.664	-0.574	60.141	85.664	1.166236e-06
473.00	135.683	0.757	60.149	85.683	1.163770e-06
474.00	135.701	2.056	60.157	85.701	1.161315e-06
475.00	135.719	-2.810	60.166	85.719	1.158870e-06
476.00	135.738	3.227	60.174	85.738	1.156435e-06
477.00	135.756	-5.397	60.182	85.756	1.154011e-06
478.00	135.774	3.081	60.190	85.774	1.151597e-06
479.00	135.792	-1.795	60.198	85.792	1.149192e-06
480.00	135.810	1.517	60.206	85.810	1.146798e-06
481.00	135.828	1.819	60.211	85.828	1.144414e-06
482.00	135.846	-2.987	60.217	85.846	1.142040e-06
483.00	135.864	3.323	60.223	85.864	1.139675e-06
484.00	135.882	-4.510	60.228	85.882	1.137321e-06
485.00	135.900	2.474	60.234	85.900	1.134976e-06
486.00	135.918	0.664	60.239	85.918	1.132640e-06
487.00	135.936	-1.140	60.245	85.936	1.130315e-06
488.00	135.954	3.117	60.250	85.954	1.127998e-06
489.00	135.972	-5.529	60.256	85.972	1.125692e-06
490.00	135.989	2.977	60.261	85.989	1.123394e-06
491.00	136.007	-0.059	60.265	86.007	1.121106e-06
492.00	136.025	-0.810	60.268	86.025	1.118828e-06
493.00	136.042	3.177	60.272	86.042	1.116558e-06
494.00	136.060	-5.198	60.275	86.060	1.114298e-06
495.00	136.078	2.536	60.278	86.078	1.112047e-06
496.00	136.095	1.085	60.282	86.095	1.109805e-06
497.00	136.113	-2.450	60.285	86.113	1.107572e-06
498.00	136.130	3.377	60.288	86.130	1.105348e-06
499.00	136.147	-3.524	60.292	86.147	1.103133e-06
500.00	136.165	1.655	60.295	86.165	1.100926e-06
501.00	136.182	2.558	60.295	86.182	1.098729e-06
502.00	136.200	-5.651	60.295	86.200	1.096540e-06
503.00	136.217	2.669	60.295	86.217	1.094360e-06
504.00	136.234	1.528	60.295	86.234	1.092189e-06
505.00	136.251	-4.306	60.295	86.251	1.090026e-06
506.00	136.268	3.214	60.295	86.268	1.087872e-06
507.00	136.286	0.149	60.295	86.286	1.085726e-06
508.00	136.303	-2.210	60.295	86.303	1.083589e-06
509.00	136.320	3.411	60.295	86.320	1.081460e-06
510.00	136.337	-1.507	60.295	86.337	1.079340e-06
511.00	136.354	-1.324	60.292	86.354	1.077227e-06
512.00	136.371	3.414	60.289	86.371	1.075123e-06
513.00	136.388	-0.485	60.285	86.388	1.073028e-06
514.00	136.405	-2.509	60.282	86.405	1.070940e-06
515.00	136.422	3.324	60.279	86.422	1.068861e-06
516.00	136.438	0.543	60.275	86.438	1.066789e-06
517.00	136.455	-3.963	60.272	86.455	1.064726e-06
518.00	136.472	3.079	60.269	86.472	1.062670e-06
519.00	136.489	1.503	60.266	86.489	1.060623e-06
520.00	136.506	-5.360	60.262	86.506	1.058583e-06
521.00	136.522	2.269	60.256	86.522	1.056551e-06
522.00	136.539	2.937	60.250	86.539	1.054527e-06
523.00	136.555	-3.576	60.244	86.555	1.052511e-06
524.00	136.572	-0.557	60.238	86.572	1.050502e-06
525.00	136.589	3.429	60.231	86.589	1.048501e-06
526.00	136.605	0.643	60.225	86.605	1.046508e-06
527.00	136.622	-5.137	60.219	86.622	1.044522e-06
528.00	136.638	2.370	60.213	86.638	1.042544e-06
529.00	136.655	2.930	60.207	86.655	1.040573e-06
530.00	136.671	-3.519	60.201	86.671	1.038610e-06
531.00	136.687	-1.250	60.193	86.687	1.036654e-06
532.00	136.704	3.286	60.185	86.704	1.034705e-06
533.00	136.720	1.944	60.177	86.720	1.032764e-06
534.00	136.736	-5.379	60.169	86.736	1.030830e-06
535.00	136.753	0.334	60.161	86.753	1.028903e-06
536.00	136.769	3.464	60.154	86.769	1.026984e-06
537.00	136.785	0.966	60.146	86.785	1.025071e-06
538.00	136.801	-5.844	60.138	86.801	1.023166e-06
539.00	136.817	1.381	60.130	86.817	1.021267e-06
540.00	136.833	3.439	60.123	86.833	1.019376e-06
541.00	136.849	0.347	60.113	86.849	1.017492e-06
542.00	136.865	-5.779	60.104	86.865	1.015615e-06
543.00	136.881	1.202	60.095	86.881	1.013744e-06
544.00	136.897	3.484	60.085	86.897	1.011881e-06
545.00	136.913	1.029	60.076	86.913	1.010024e-06
546.00	136.929	-5.868	60.067	86.929	1.008174e-06
547.00	136.945	0.447	60.058	86.945	1.006331e-06
548.00	136.961	3.453	60.048	86.961	1.004495e-06
549.00	136.977	1.778	60.039	86.977	1.002665e-06
550.00	136.993	-5.085	60.030	86.993	1.000842e-06
551.00	137.008	-0.976	60.020	87.008	9.990257e-07
552.00	137.024	3.145	60.010	87.024	9.972159e-07
553.00	137.040	2.825	60.000	87.040	9.954126e-07
554.00	137.056	-2.101	59.990	87.056	9.936158e-07
555.00	137.071	-4.026	59.980	87.071	9.918255e-07
556.00	137.087	2.117	59.970	87.087	9.900417e-07
557.00	137.103	3.450	59.960	87.103	9.882642e-07
558.00	137.118	0.652	59.950	87.118	9.864931e-07
559.00	137.134	-5.937	59.941	87.134	9.847284e-07
560.00	137.149	0.070	59.931	87.149	9.829699e-07
561.00	137.165	3.342	59.921	87.165	9.812178e-07
562.00	137.180	2.593	59.911	87.180	9.794718e-07
563.00	137.196	-2.585	59.901	87.196	9.777321e-07
564.00	137.211	-3.828	59.891	87.211	9.759985e-07
565.00	137.226	2.102	59.881	87.226	9.742711e-07
566.00	137.242	3.487	59.871	87.242	9.725498e-07
567.00	137.257	1.042	59.861	87.257	9.708345e-07
568.00	137.272	-5.594	59.851	87.272	9.691253e-07
569.00	137.288	-0.832	59.841	87.288	9.674221e-07
570.00	137.303	3.110	59.831	87.303	9.657249e-07
571.00	137.318	2.922	59.823	87.318	9.640336e-07
572.00	137.333	-1.893	59.815	87.333	9.623482e-07
573.00	137.349	-4.265	59.806	87.349	9.606687e-07
574.00	137.364	2.061	59.798	87.364	9.589951e-07
575.00	137.379	3.488	59.790	87.379	9.573272e-07
576.00	137.394	0.747	59.781	87.394	9.556652e-07
577.00	137.409	-5.993	59.773	87.409	9.540090e-07
578.00	137.424	0.030	59.765	87.424	9.523584e-07
579.00	137.439	3.378	59.757	87.439	9.507136e-07
580.00	137.454	2.546	59.749	87.454	9.490744e-07
581.00	137.469	-2.865	59.740	87.469	9.474409e-07
582.00	137.484	-3.522	59.732	87.484	9.458130e-07
583.00	137.499	2.290	59.724	87.499	9.441907e-07
584.00	137.514	3.479	59.715	87.514	9.425739e-07
585.00	137.529	0.729	59.707	87.529	9.409627e-07
586.00	137.543	-5.967	59.699	87.543	9.393569e-07
587.00	137.558	-0.294	59.691	87.558	9.377567e-07
588.00	137.573	3.283	59.683	87.573	9.361619e-07
589.00	137.588	2.853	59.674	87.588	9.345724e-07
590.00	137.602	-1.825	59.666	87.602	9.329884e-07
591.00	137.617	-4.983	59.658	87.617	9.314098e-07
592.00	137.632	1.420	59.649	87.632	9.298364e-07
593.00	137.647	3.543	59.640	87.647	9.282684e-07
594.00	137.661	2.146	59.632	87.661	9.267057e-07
595.00	137.676	-3.469	59.623	87.676	9.251482e-07
596.00	137.690	-3.441	59.614	87.690	9.235959e-07
597.00	137.705	2.147	59.606	87.705	9.220489e-07
598.00	137.719	3.553	59.597	87.719	9.205070e-07
599.00	137.734	1.524	59.589	87.734	9.189702e-07
600.00	137.748	-4.706	59.580	87.748	9.174386e-07
601.00	137.763	-2.638	59.571	87.763	9.159121e-07
602.00	137.777	2.307	59.561	87.777	9.143906e-07
603.00	137.792	3.561	59.552	87.792	9.128742e-07
604.00	137.806	1.772	59.543	87.806	9.113629e-07
605.00	137.821	-3.816	59.533	87.821	9.098565e-07
606.00	137.835	-3.644	59.524	87.835	9.083551e-07
607.00	137.849	1.841	59.515	87.849	9.068586e-07
608.00	137.864	3.570	59.506	87.864	9.053671e-07
609.00	137.878	2.327	59.496	87.878	9.038804e-07
610.00	137.892	-2.481	59.487	87.892	9.023986e-07
611.00	137.906	-5.416	59.477	87.906	9.009217e-07
612.00	137.920	0.487	59.467	87.920	8.994496e-07
613.00	137.935	3.244	59.456	87.935	8.979823e-07
614.00	137.949	3.309	59.446	87.949	8.965198e-07
615.00	137.963	0.728	59.436	87.963	8.950621e-07
616.00	137.977	-5.065	59.425	87.977	8.936090e-07
617.00	137.991	-3.006	59.415	87.991	8.921607e-07
618.00	138.005	1.860	59.405	88.005	8.907171e-07
619.00	138.019	3.554	59.395	88.019	8.892781e-07
620.00	138.033	2.770	59.385	88.033	8.878438e-07
621.00	138.047	-0.661	59.374	88.047	8.864141e-07
622.00	138.061	-6.147	59.364	88.061	8.849890e-07
623.00	138.075	-1.702	59.353	88.075	8.835685e-07
624.00	138.089	2.328	59.343	88.089	8.821525e-07
625.00	138.103	3.594	59.332	88.103	8.807411e-07
626.00	138.117	2.615	59.322	88.117	8.793341e-07
627.00	138.131	-0.988	59.311	88.131	8.779317e-07
628.00	138.145	-6.239	59.301	88.145	8.765337e-07
629.00	138.158	-1.505	59.291	88.158	8.751402e-07
630.00	138.172	2.384	59.280	88.172	8.737511e-07
631.00	138.186	3.601	59.270	88.186	8.723664e-07
632.00	138.200	2.620	59.260	88.200	8.709860e-07
633.00	138.214	-0.937	59.250	88.214	8.696101e-07
634.00	138.227	-6.236	59.239	88.227	8.682384e-07
635.00	138.241	-1.672	59.229	88.241	8.668711e-07
636.00	138.255	2.292	59.219	88.255	8.655081e-07
637.00	138.268	3.599	59.209	88.268	8.641494e-07
638.00	138.282	2.765	59.199	88.282	8.627949e-07
639.00	138.295	-0.521	59.189	88.295	8.614447e-07
640.00	138.309	-6.033	59.179	88.309	8.600987e-07
641.00	138.323	-2.075	59.170	88.323	8.587569e-07
642.00	138.336	2.188	59.161	88.336	8.574193e-07
643.00	138.350	3.601	59.151	88.350	8.560858e-07
644.00	138.363	2.749	59.142	88.363	8.547565e-07
645.00	138.377	-0.707	59.133	88.377	8.534313e-07
646.00	138.390	-6.220	59.124	88.390	8.521102e-07
647.00	138.404	-1.783	59.115	88.404	8.507932e-07
648.00	138.417	2.286	59.106	88.417	8.494802e-07
649.00	138.430	3.613	59.097	88.430	8.481713e-07
650.00	138.444	2.738	59.088	88.444	8.468664e-07
651.00	138.457	-1.471	59.081	88.457	8.455655e-07
652.00	138.470	-6.007	59.075	88.470	8.442687e-07
653.00	138.484	0.306	59.068	88.484	8.429758e-07
654.00	138.497	3.306	59.062	88.497	8.416868e-07
655.00	138.510	3.256	59.055	88.510	8.404018e-07
656.00	138.524	0.151	59.049	88.524	8.391207e-07
657.00	138.537	-6.109	59.042	88.537	8.378435e-07
658.00	138.550	-1.412	59.036	88.550	8.365702e-07
659.00	138.563	2.728	59.030	88.563	8.353007e-07
660.00	138.576	3.586	59.023	88.576	8.340351e-07
661.00	138.589	1.562	59.017	88.589	8.327733e-07
662.00	138.603	-4.222	59.011	88.603	8.315154e-07
663.00	138.616	-3.569	59.005	88.616	8.302612e-07
664.00	138.629	1.864	58.999	88.629	8.290108e-07
665.00	138.642	3.623	58.993	88.642	8.277642e-07
666.00	138.655	2.539	58.987	88.655	8.265213e-07
667.00	138.668	-1.927	58.981	88.668	8.252821e-07
668.00	138.681	-5.819	58.975	88.681	8.240467e-07
669.00	138.694	0.476	58.970	88.694	8.228149e-07
670.00	138.707	3.343	58.964	88.707	8.215868e-07
671.00	138.720	3.321	58.957	88.720	8.203624e-07
672.00	138.733	0.562	58.951	88.733	8.191416e-07
673.00	138.746	-5.511	58.944	88.746	8.179245e-07
674.00	138.759	-2.627	58.938	88.759	8.167109e-07
675.00	138.772	2.121	58.932	88.772	8.155010e-07
676.00	138.784	3.640	58.925	88.784	8.142946e-07
677.00	138.797	2.630	58.919	88.797	8.130918e-07
678.00	138.810	-1.366	58.913	88.810	8.118926e-07
679.00	138.823	-6.362	58.906	88.823	8.106969e-07
680.00	138.836	-0.534	58.900	88.836	8.095047e-07
681.00	138.848	2.777	58.892	88.848	8.083160e-07
682.00	138.861	3.651	58.885	88.861	8.071307e-07
683.00	138.874	2.448	58.877	88.874	8.059490e-07
684.00	138.887	-1.285	58.870	88.887	8.047707e-07
685.00	138.899	-6.439	58.862	88.899	8.035959e-07
686.00	138.912	-1.641	58.855	88.912	8.024244e-07
687.00	138.925	2.277	58.847	88.925	8.012564e-07
688.00	138.937	3.637	58.840	88.937	8.000918e-07
689.00	138.950	2.965	58.832	88.950	7.989306e-07
690.00	138.962	0.019	58.825	88.962	7.977727e-07
691.00	138.975	-4.832	58.815	88.975	7.966182e-07
692.00	138.988	-5.029	58.806	88.988	7.954670e-07
693.00	139.000	-0.145	58.797	89.000	7.943191e-07
694.00	139.013	2.631	58.787	89.013	7.931746e-07
695.00	139.025	3.644	58.778	89.025	7.920333e-07
696.00	139.038	3.189	58.769	89.038	7.908954e-07
697.00	139.050	1.148	58.759	89.050	7.897606e-07
698.00	139.063	-2.971	58.750	89.063	7.886292e-07
699.00	139.075	-6.386	58.741	89.075	7.875010e-07
700.00	139.087	-1.801	58.731	89.087	7.863760e-07
701.00	139.100	1.423	58.721	89.100	7.852542e-07
702.00	139.112	3.133	58.710	89.112	7.841356e-07
703.00	139.125	3.675	58.699	89.125	7.830202e-07
704.00	139.137	3.164	58.688	89.137	7.819079e-07
705.00	139.149	1.505	58.677	89.149	7.807988e-07
706.00	139.162	-1.616	58.666	89.162	7.796929e-07
707.00	139.174	-5.877	58.656	89.174	7.785901e-07
708.00	139.186	-4.768	58.645	89.186	7.774904e-07
709.00	139.198	-0.581	58.634	89.198	7.763937e-07
710.00	139.211	2.077	58.623	89.211	7.753002e-07
711.00	139.223	3.303	58.611	89.223	7.742098e-07
712.00	139.235	3.681	58.600	89.235	7.731224e-07
713.00	139.247	3.274	58.588	89.247	7.720381e-07
714.00	139.259	2.027	58.576	89.259	7.709568e-07
715.00	139.272	-0.243	58.564	89.272	7.698786e-07
716.00	139.284	-3.735	58.552	89.284	7.688033e-07
717.00	139.296	-6.527	58.541	89.296	7.677311e-07
718.00	139.308	-3.803	58.529	89.308	7.666618e-07
719.00	139.320	-0.311	58.517	89.320	7.655955e-07
720.00	139.332	1.968	58.505	89.332	7.645322e-07
721.00	139.344	3.179	58.493	89.344	7.634718e-07
722.00	139.356	3.668	58.481	89.356	7.624144e-07
723.00	139.368	3.503	58.469	89.368	7.613598e-07
724.00	139.380	2.666	58.457	89.380	7.603082e-07
725.00	139.392	1.058	58.444	89.392	7.592595e-07
726.00	139.404	-1.509	58.432	89.404	7.582137e-07
727.00	139.416	-4.973	58.420	89.416	7.571708e-07
728.00	139.428	-6.364	58.408	89.428	7.561307e-07
729.00	139.440	-3.277	58.396	89.440	7.550935e-07
730.00	139.452	-0.178	58.384	89.452	7.540591e-07
731.00	139.464	2.090	58.373	89.464	7.530276e-07
732.00	139.476	3.315	58.363	89.476	7.519989e-07
733.00	139.488	3.694	58.352	89.488	7.509729e-07
734.00	139.499	3.288	58.341	89.499	7.499498e-07
735.00	139.511	2.042	58.330	89.511	7.489295e-07
736.00	139.523	-0.228	58.319	89.523	7.479119e-07
737.00	139.535	-3.730	58.309	89.535	7.468971e-07
738.00	139.547	-6.569	58.298	89.547	7.458851e-07
739.00	139.558	-3.840	58.287	89.558	7.448757e-07
740.00	139.570	-0.325	58.277	89.570	7.438691e-07
741.00	139.582	1.974	58.266	89.582	7.428653e-07
742.00	139.594	3.249	58.255	89.594	7.418641e-07
743.00	139.605	3.697	58.245	89.605	7.408656e-07
744.00	139.617	3.389	58.234	89.617	7.398699e-07
745.00	139.629	2.285	58.224	89.629	7.388767e-07
746.00	139.640	0.228	58.214	89.640	7.378863e-07
747.00	139.652	-3.016	58.203	89.652	7.368985e-07
748.00	139.663	-6.408	58.193	89.663	7.359133e-07
749.00	139.675	-4.718	58.182	89.675	7.349308e-07
750.00	139.687	-1.053	58.172	89.687	7.339509e-07
751.00	139.698	1.473	58.162	89.698	7.329736e-07
752.00	139.710	2.966	58.151	89.710	7.319989e-07
753.00	139.721	3.640	58.141	89.721	7.310268e-07
754.00	139.733	3.594	58.131	89.733	7.300573e-07
755.00	139.744	2.826	58.120	89.744	7.290903e-07
756.00	139.756	1.235	58.110	89.756	7.281259e-07
757.00	139.767	-1.388	58.100	89.767	7.271640e-07
758.00	139.779	-5.020	58.090	89.779	7.262047e-07
759.00	139.790	-6.343	58.079	89.790	7.252479e-07
760.00	139.802	-2.971	58.069	89.802	7.242936e-07
761.00	139.813	0.102	58.059	89.813	7.233419e-07
762.00	139.825	2.109	58.048	89.825	7.223926e-07
763.00	139.836	3.258	58.038	89.836	7.214458e-07
764.00	139.847	3.702	58.028	89.847	7.205015e-07
765.00	139.859	3.501	58.018	89.859	7.195597e-07
766.00	139.870	2.634	58.007	89.870	7.186203e-07
767.00	139.881	0.997	57.997	89.881	7.176834e-07
768.00	139.893	-1.602	57.987	89.893	7.167489e-07
769.00	139.904	-5.096	57.977	89.904	7.158169e-07
770.00	139.915	-6.416	57.967	89.915	7.148872e-07
771.00	139.927	-3.349	57.956	89.927	7.139600e-07
772.00	139.938	-0.285	57.946	89.938	7.130352e-07
773.00	139.949	1.792	57.936	89.949	7.121128e-07
774.00	139.960	3.052	57.926	89.960	7.111927e-07
775.00	139.971	3.646	57.915	89.971	7.102751e-07
776.00	139.983	3.647	57.905	89.983	7.093598e-07
777.00	139.994	3.058	57.895	89.994	7.084468e-07
778.00	140.005	1.817	57.885	90.005	7.075362e-07
779.00	140.016	-0.215	57.875	90.016	7.066279e-07
780.00	140.027	-3.196	57.865	90.027	7.057220e-07
781.00	140.038	-6.209	57.854	90.038	7.048184e-07
782.00	140.050	-5.791	57.844	90.050	7.039171e-07
783.00	140.061	-2.643	57.833	90.061	7.030181e-07
784.00	140.072	0.041	57.823	90.072	7.021214e-07
785.00	140.083	1.883	57.812	90.083	7.012270e-07
786.00	140.094	3.036	57.802	90.094	7.003348e-07
787.00	140.105	3.620	57.792	90.105	6.994449e-07
788.00	140.116	3.695	57.781	90.116	6.985573e-07
789.00	140.127	3.272	57.771	90.127	6.976720e-07
790.00	140.138	2.314	57.761	90.138	6.967888e-07
791.00	140.149	0.841	57.750	90.149	6.959079e-07
792.00	140.160	-1.307	57.740	90.160	6.950293e-07
793.00	140.171	-4.155	57.729	90.171	6.941528e-07
794.00	140.182	-6.556	57.718	90.182	6.932785e-07
795.00	140.193	-5.468	57.708	90.193	6.924065e-07
796.00	140.204	-2.531	57.697	90.204	6.915366e-07
797.00	140.215	-0.064	57.687	90.215	6.906690e-07
798.00	140.225	1.687	57.676	90.225	6.898035e-07
799.00	140.236	2.843	57.666	90.236	6.889401e-07
800.00	140.247	3.505	57.655	90.247	6.880790e-07
